File: Raw_Data./Tensile Nozzle 0.4 mm/0 Degrees/LH0.1_0D_N0.4/Test 4.csv
Crosshead ,Crosshead ini,Load ,Load ini,Time ,Strain 1 ,Strain 2 ,Strain 3 ,Strain 4 ,PoissonRatio ,,,
0,0.000341797,0,-0.0182649,0.121,-0.000112224,-0.000128595,-0.000132476,1.48E-05,114.588,-0.000341797,0.000341797,0.0182649
0.020459,0.02080078,0.01989478,0.001629926,0.821,0.00011032,8.28E-05,0.000134216,-5.06E-05,75.0791,-0.000341797,,0.0182649
0.0457031,0.0460449,0.04321659,0.0249517,1.521,0.000376995,0.000350764,0.000428408,-0.000156787,93.0421,-0.000341797,,0.0182649
0.0709473,0.0712891,0.0706211,0.0523562,2.221,0.00071487,0.000642803,0.000790512,-0.000166186,89.9189,-0.000341797,,0.0182649
0.0950684,0.0954102,0.0929062,0.0746414,2.921,0.00113543,0.0011363,0.00128126,-0.000241708,100.077,-0.000341797,,0.0182649
0.11958,0.119922,0.116711,0.0984464,3.621,0.00131204,0.00144567,0.00150666,-0.000331906,110.185,-0.000341797,,0.0182649
0.142627,0.142969,0.139164,0.120899,4.321,0.00144022,0.00147737,0.00163769,-0.000398522,102.579,-0.000341797,,0.0182649
0.166406,0.166748,0.164389,0.146124,5.021,0.0017935,0.00184304,0.00200072,-0.000454155,102.762,-0.000341797,,0.0182649
0.190576,0.190918,0.187999,0.169735,5.721,0.00216625,0.00228714,0.00243637,-0.000518374,105.581,-0.000341797,,0.0182649
0.212939,0.213281,0.210033,0.191768,6.421,0.00232084,0.00246136,0.00260133,-0.00063555,106.055,-0.000341797,,0.0182649
0.236865,0.237207,0.231568,0.213303,7.121,0.00245187,0.00260509,0.00280173,-0.000724697,106.249,-0.000341797,,0.0182649
0.259961,0.260303,0.24931,0.231045,7.821,0.00279477,0.00290646,0.00314178,-0.000726224,103.996,-0.000341797,,0.0182649
0.283105,0.283447,0.277383,0.259118,8.521,0.00306335,0.00324118,0.00346815,-0.000851954,105.805,-0.000341797,,0.0182649
0.306592,0.306934,0.300414,0.282149,9.221,0.00323516,0.00345426,0.00367533,-0.000937681,106.772,-0.000341797,,0.0182649
0.329736,0.330078,0.322324,0.304059,9.921,0.0034499,0.00368216,0.00390936,-0.000998753,106.732,-0.000341797,,0.0182649
0.35376,0.354102,0.344618,0.326354,10.621,0.003747,0.00395699,0.00422537,-0.00106719,105.604,-0.000341797,,0.0182649
0.376123,0.376465,0.364698,0.346433,11.321,0.00388768,0.00412673,0.00442217,-0.00111019,106.149,-0.000341797,,0.0182649
0.400195,0.400537,0.386679,0.368414,12.021,0.0041508,0.00437951,0.0046744,-0.00123016,105.51,-0.000341797,,0.0182649
0.423584,0.423926,0.408479,0.390215,12.721,0.00442613,0.00472622,0.00501733,-0.00132255,106.78,-0.000341797,,0.0182649
0.446436,0.446777,0.427413,0.409148,13.421,0.00457312,0.00495112,0.00521197,-0.00139694,108.266,-0.000341797,,0.0182649
0.470264,0.470605,0.447719,0.429454,14.121,0.00472503,0.0050329,0.00534475,-0.00146603,106.516,-0.000341797,,0.0182649
0.493701,0.494043,0.46741,0.449145,14.821,0.00504888,0.00533093,0.0056512,-0.00151087,105.586,-0.000341797,,0.0182649
0.516943,0.517285,0.48795,0.469685,15.521,0.005364,0.00570491,0.00605607,-0.00161274,106.356,-0.000341797,,0.0182649
0.539648,0.53999,0.506982,0.488717,16.221,0.00545688,0.00589585,0.00620041,-0.00167518,108.044,-0.000341797,,0.0182649
0.563232,0.563574,0.524698,0.506433,16.921,0.00559641,0.00595818,0.00632116,-0.00175029,106.464,-0.000341797,,0.0182649
0.586816,0.587158,0.5422,0.523936,17.621,0.00593743,0.00622199,0.00672331,-0.00187908,104.793,-0.000341797,,0.0182649
0.609619,0.609961,0.558806,0.540541,18.321,0.00621526,0.00665259,0.00702671,-0.0019291,107.036,-0.000341797,,0.0182649
0.633936,0.634277,0.580188,0.561923,19.021,0.00632321,0.00684293,0.00718084,-0.00196162,108.219,-0.000341797,,0.0182649
0.656885,0.657227,0.594655,0.57639,19.721,0.00638673,0.00688543,0.00726144,-0.00209265,107.808,-0.000341797,,0.0182649
0.680225,0.680566,0.614532,0.596267,20.421,0.00676781,0.00724376,0.00766269,-0.00214904,107.033,-0.000341797,,0.0182649
0.702979,0.70332,0.629935,0.6116698,21.121,0.0070113,0.00752093,0.00792618,-0.00221052,107.269,-0.000341797,,0.0182649
0.726807,0.727148,0.646806,0.628541,21.821,0.00713852,0.00769891,0.00812113,-0.00227982,107.85,-0.000341797,,0.0182649
0.749902,0.750244,0.6629692,0.644704,22.521,0.00738221,0.00793967,0.00849306,-0.00235628,107.551,-0.000341797,,0.0182649
0.773047,0.773389,0.676668,0.658403,23.221,0.00759696,0.00819917,0.00864193,-0.00246037,107.927,-0.000341797,,0.0182649
0.79707,0.797412,0.692948,0.6746828,23.921,0.00780231,0.00833948,0.00880782,-0.00252836,106.885,-0.000341797,,0.0182649
0.82002,0.820361,0.706291,0.688026,24.621,0.00799326,0.00854526,0.00906368,-0.00257309,106.906,-0.000341797,,0.0182649
0.843311,0.843652,0.725742,0.707477,25.321,0.00825138,0.00892932,0.00943779,-0.00272645,108.216,-0.000341797,,0.0182649
0.866699,0.867041,0.742179,0.723914,26.021,0.00834949,0.00912984,0.00956301,-0.00277215,109.346,-0.000341797,,0.0182649
0.890137,0.890478,0.75547,0.737205,26.721,0.00854874,0.00918557,0.00968722,-0.00279213,107.449,-0.000341797,,0.0182649
0.913672,0.914014,0.774212,0.755947,27.421,0.00884806,0.00946463,0.0100424,-0.00287334,106.968,-0.000341797,,0.0182649
0.935986,0.936328,0.785851,0.767587,28.121,0.00908283,0.00984655,0.0103554,-0.00298029,108.408,-0.000341797,,0.0182649
0.9604,0.960742,0.800608,0.782343,28.821,0.00914953,0.00999842,0.0104971,-0.00310639,109.278,-0.000341797,,0.0182649
0.98291,0.983252,0.816587,0.798322,29.521,0.00931984,0.0100608,0.0106255,-0.0031114,107.95,-0.000341797,,0.0182649
1.00659,1.00693,0.832852,0.814587,30.221,0.00969796,0.0103761,0.0110285,-0.00321649,106.993,-0.000341797,,0.0182649
1.03018,1.03052,0.842039,0.823774,30.921,0.00991778,0.0107478,0.0112931,-0.00327171,108.369,-0.000341797,,0.0182649
1.05322,1.05356,0.857659,0.839394,31.621,0.00996791,0.0108669,0.011419,-0.00337688,109.019,-0.000341797,,0.0182649
1.07686,1.0772,0.871456,0.853191,32.321,0.0101839,0.0110307,0.0116541,-0.00341305,108.315,-0.000341797,,0.0182649
1.09976,1.1001,0.883632,0.865367,33.021,0.0104054,0.011283,0.0119747,-0.00349559,108.434,-0.000341797,,0.0182649
1.12373,1.12407,0.90286,0.884595,33.721,0.0106917,0.0115727,0.0121585,-0.00356982,108.24,-0.000341797,,0.0182649
1.14687,1.14722,0.913755,0.89549,34.421,0.0107898,0.0117302,0.0123622,-0.00361354,108.716,-0.000341797,,0.0182649
1.17007,1.17041,0.928818,0.910553,35.121,0.0109764,0.0119525,0.0126035,-0.003632,108.893,-0.000341797,,0.0182649
1.19429,1.19463,0.943844,0.925579,35.821,0.0111528,0.0121659,0.0128034,-0.00378335,109.084,-0.000341797,,0.0182649
1.21606,1.21641,0.95194,0.933675,36.521,0.0114584,0.0124203,0.0130676,-0.003858,108.395,-0.000341797,,0.0182649
1.24023,1.24058,0.967659,0.949394,37.221,0.0115309,0.0126037,0.0132697,-0.00391189,109.304,-0.000341797,,0.0182649
1.26323,1.26357,0.977739,0.959474,37.921,0.0117117,0.0129437,0.0135919,-0.0039726,110.519,-0.000341797,,0.0182649
1.28662,1.28696,0.99434,0.9760755,38.621,0.0119758,0.0130828,0.0137095,-0.00408666,109.244,-0.000341797,,0.0182649
1.31001,1.31035,1.00387,0.985607,39.321,0.0121525,0.0131697,0.0138785,-0.0041434,108.37,-0.000341797,,0.0182649
1.33325,1.33359,1.01486,0.9966,40.021,0.012359,0.0135031,0.0142384,-0.00418914,109.257,-0.000341797,,0.0182649
1.35742,1.35776,1.0295,1.01124,40.721,0.0125644,0.0138247,0.0145302,-0.00427298,110.031,-0.000341797,,0.0182649
1.37949,1.37983,1.04155,1.02329,41.421,0.0127376,0.0139674,0.0146242,-0.00431129,109.655,-0.000341797,,0.0182649
1.40322,1.40356,1.05473,1.03647,42.121,0.0129378,0.0140595,0.0148486,-0.00444343,108.67,-0.000341797,,0.0182649
1.42725,1.42759,1.06575,1.04748,42.821,0.0132502,0.0143961,0.0151779,-0.00451576,108.648,-0.000341797,,0.0182649
1.44971,1.45005,1.07629,1.05803,43.521,0.0134349,0.0146403,0.0153369,-0.00447885,108.972,-0.000341797,,0.0182649
1.47368,1.47402,1.08987,1.0716,44.221,0.0135582,0.0148234,0.0155581,-0.00459397,109.332,-0.000341797,,0.0182649
1.49644,1.49678,1.09965,1.08138,44.921,0.0136754,0.0149015,0.0157492,-0.00468836,108.966,-0.000341797,,0.0182649
1.52041,1.52075,1.1111,1.09284,45.621,0.0140697,0.0152043,0.0160072,-0.00473559,108.064,-0.000341797,,0.0182649
1.54292,1.54326,1.12172,1.10346,46.321,0.0142862,0.0154852,0.0162463,-0.00477516,108.393,-0.000341797,,0.0182649
1.56631,1.56665,1.13221,1.11395,47.021,0.0143316,0.0156289,0.0164436,-0.00488521,109.052,-0.000341797,,0.0182649
1.59048,1.59082,1.14578,1.12752,47.721,0.0144824,0.0158418,0.0166829,-0.00494527,109.387,-0.000341797,,0.0182649
1.61299,1.61333,1.15564,1.13737,48.421,0.0147127,0.0159668,0.0167558,-0.00504047,108.524,-0.000341797,,0.0182649
1.63701,1.63735,1.16382,1.14556,49.121,0.0149801,0.0162452,0.017068,-0.00504782,108.445,-0.000341797,,0.0182649
1.6603,1.66064,1.17307,1.15481,49.821,0.0150612,0.016457,0.0173336,-0.00515245,109.268,-0.000341797,,0.0182649
1.6833,1.68364,1.18808,1.16981,50.521,0.0153065,0.0167672,0.017566,-0.00522463,109.543,-0.000341797,,0.0182649
1.70674,1.70708,1.19555,1.17728,51.221,0.0155403,0.016883,0.0176886,-0.00528159,108.64,-0.000341797,,0.0182649
1.72993,1.73027,1.20527,1.18701,51.921,0.0156828,0.0170102,0.0179339,-0.00530147,108.464,-0.000341797,,0.0182649
1.75386,1.7542,1.21523,1.19697,52.621,0.0159,0.0173195,0.0182671,-0.00541488,108.928,-0.000341797,,0.0182649
1.77622,1.77656,1.22367,1.20541,53.321,0.0160444,0.0175809,0.0183833,-0.00555559,109.577,-0.000341797,,0.0182649
1.80015,1.80049,1.23445,1.21619,54.021,0.0162231,0.0176706,0.0185177,-0.00559341,108.922,-0.000341797,,0.0182649
1.82354,1.82388,1.24354,1.22528,54.721,0.0163967,0.0177837,0.0187875,-0.00564579,108.459,-0.000341797,,0.0182649
1.84648,1.84683,1.25132,1.23306,55.421,0.0167087,0.0181733,0.0191154,-0.00571715,108.765,-0.000341797,,0.0182649
1.87012,1.87046,1.25408,1.23581,56.121,0.0169221,0.0183882,0.019215,-0.00577472,108.664,-0.000341797,,0.0182649
1.89346,1.8938,1.25968,1.24141,56.821,0.0169665,0.0185078,0.0191802,-0.0057582,109.084,-0.000341797,,0.0182649
1.91685,1.91719,1.26349,1.24522,57.521,0.0170892,0.0185166,0.0192776,-0.00581238,108.353,-0.000341797,,0.0182649
1.92485,1.9252,0.0841467,0.0658819,57.756,0.0171486,0.0185503,0.0193708,-0.00579072,108.174,-0.000341797,,0.0182649