File: Raw_Data./Tensile Nozzle 0.4 mm/0 Degrees/LH0.1_0D_N0.4/Test 3.csv
Crosshead ,Crosshead ini,Load ,Load ,Time ,Strain 1 ,Strain 2 ,Strain 3 ,Strain 4 ,PoissonRatio ,0.001660156,0.0621877
0,0.001660156,0,0.0621877,0.213,-1.85E-05,-1.23E-05,-1.97E-05,9.90E-06,66.5749,0.001660156,0.0621877
0.0268066,0.0284668,0.0275365,0.08972422,1.013,0.0001636,0.000109343,0.000169573,-0.000141417,66.8356,0.001660156,0.0621877
0.0552734,0.0569336,0.0573946,0.119582,1.813,0.000342087,0.000329076,0.000328057,-0.000182451,96.1966,0.001660156,0.0621877
0.0831543,0.0848145,0.0860114,0.148199,2.613,0.000646062,0.000648465,0.00062871,-0.000353247,100.372,0.001660156,0.0621877
0.111133,0.112793,0.111048,0.173236,3.413,0.000905714,0.000926363,0.000928727,-0.000488509,102.28,0.001660156,0.0621877
0.137842,0.139502,0.139552,0.20174,4.213,0.00097148,0.000977739,0.000991446,-0.000662529,100.644,0.001660156,0.0621877
0.165039,0.166699,0.165223,0.22741,5.013,0.0013583,0.00138691,0.00133865,-0.000703933,102.106,0.001660156,0.0621877
0.192871,0.194531,0.191609,0.253796,5.813,0.0016007,0.00166577,0.00167931,-0.000870656,104.065,0.001660156,0.0621877
0.218408,0.220068,0.218594,0.280781,6.613,0.00169046,0.00177554,0.00177111,-0.00097373,105.033,0.001660156,0.0621877
0.244971,0.246631,0.241812,0.304,7.413,0.00192853,0.00194647,0.00195383,-0.00106214,100.93,0.001660156,0.0621877
0.272266,0.273926,0.266665,0.3288526,8.213,0.002325,0.00238878,0.0023803,-0.00120895,102.743,0.001660156,0.0621877
0.298291,0.299951,0.290887,0.353074,9.013,0.00249182,0.00260782,0.00258743,-0.00132997,104.655,0.001660156,0.0621877
0.325537,0.327197,0.317716,0.379903,9.813,0.00264785,0.00271918,0.00270765,-0.00130427,102.694,0.001660156,0.0621877
0.352393,0.354053,0.338695,0.400883,10.613,0.00297737,0.00305631,0.00307408,-0.00150586,102.651,0.001660156,0.0621877
0.378174,0.379834,0.360214,0.422402,11.413,0.00322936,0.00332358,0.00334908,-0.00168803,102.918,0.001660156,0.0621877
0.405273,0.406934,0.385964,0.448152,12.213,0.0034102,0.00354504,0.00352436,-0.00180568,103.954,0.001660156,0.0621877
0.432422,0.434082,0.404005,0.466193,13.013,0.00368128,0.00382162,0.00382621,-0.00186181,103.812,0.001660156,0.0621877
0.458887,0.460547,0.428196,0.490383,13.813,0.00395057,0.00403565,0.00406905,-0.00200906,102.154,0.001660156,0.0621877
0.485547,0.487207,0.449275,0.511462,14.613,0.00417824,0.00436233,0.00434789,-0.00211742,104.406,0.001660156,0.0621877
0.512402,0.514063,0.469657,0.531845,15.413,0.004427,0.00466398,0.00468958,-0.00216892,105.353,0.001660156,0.0621877
0.53833,0.53999,0.488546,0.550733,16.213,0.00462843,0.00484339,0.00481573,-0.002296,104.644,0.001660156,0.0621877
0.56499,0.56665,0.50847,0.570657,17.013,0.00493106,0.00512398,0.00513633,-0.00236197,103.912,0.001660156,0.0621877
0.592773,0.594434,0.527763,0.589951,17.813,0.00521625,0.00549384,0.00550952,-0.00243572,105.322,0.001660156,0.0621877
0.618555,0.620215,0.546241,0.608429,18.613,0.0053202,0.00565054,0.00562138,-0.00254605,106.209,0.001660156,0.0621877
0.645264,0.646924,0.564192,0.626379,19.413,0.0054782,0.00583977,0.0058523,-0.00265249,106.6,0.001660156,0.0621877
0.672461,0.674121,0.583341,0.645529,20.213,0.00581635,0.0062755,0.00628925,-0.00274873,107.894,0.001660156,0.0621877
0.698291,0.699951,0.599098,0.661286,21.013,0.00599558,0.00647233,0.00649967,-0.0028118,107.952,0.001660156,0.0621877
0.725439,0.7271,0.620544,0.682732,21.813,0.00622648,0.00665473,0.00665075,-0.00292118,106.878,0.001660156,0.0621877
0.752393,0.754053,0.637896,0.700083,22.613,0.00653084,0.00697254,0.00705528,-0.00302377,106.763,0.001660156,0.0621877
0.778125,0.779785,0.653857,0.716045,23.413,0.00689822,0.00727684,0.00732625,-0.00308767,105.489,0.001660156,0.0621877
0.805322,0.806982,0.672712,0.734899,24.213,0.00699398,0.00748095,0.00748974,-0.00315838,106.963,0.001660156,0.0621877
0.832617,0.834277,0.688565,0.750753,25.013,0.00726204,0.00772673,0.00779573,-0.00326885,106.399,0.001660156,0.0621877
0.858887,0.860547,0.7034948,0.765682,25.813,0.007585,0.00793328,0.00805576,-0.00336368,104.592,0.001660156,0.0621877
0.885352,0.887012,0.719233,0.781421,26.613,0.00778878,0.00827422,0.00829173,-0.00345611,106.233,0.001660156,0.0621877
0.912305,0.913965,0.73637,0.798557,27.413,0.00805119,0.00849604,0.0086211,-0.00353007,105.525,0.001660156,0.0621877
0.937988,0.939648,0.753629,0.815816,28.213,0.00824409,0.00862578,0.00875266,-0.00371369,104.63,0.001660156,0.0621877
0.964893,0.966553,0.769448,0.831636,29.013,0.0085275,0.00897132,0.00902173,-0.00374298,105.205,0.001660156,0.0621877
0.992822,0.994482,0.789668,0.851855,29.813,0.00884539,0.00930741,0.00945769,-0.00386607,105.223,0.001660156,0.0621877
1.01851,1.02017,0.802585,0.864773,30.613,0.00902702,0.00950147,0.00958269,-0.00400666,105.256,0.001660156,0.0621877
1.04497,1.04663,0.816672,0.87886,31.413,0.00919263,0.00967042,0.00977763,-0.00401053,105.198,0.001660156,0.0621877
1.07241,1.07407,0.833721,0.895909,32.213,0.00961069,0.0100153,0.0102483,-0.0041081,104.21,0.001660156,0.0621877
1.09839,1.10005,0.845387,0.907575,33.013,0.00980164,0.0103439,0.010414,-0.00432362,105.532,0.001660156,0.0621877
1.12573,1.12739,0.860602,0.92279,33.813,0.0098811,0.0104957,0.0104882,-0.00447819,106.22,0.001660156,0.0621877
1.15293,1.15459,0.875905,0.938093,34.613,0.0102752,0.010666,0.010915,-0.00451093,103.803,0.001660156,0.0621877
1.17856,1.18022,0.893778,0.955966,35.413,0.01061,0.0111165,0.0112039,-0.00464613,104.774,0.001660156,0.0621877
1.20522,1.20688,0.906204,0.968392,36.213,0.0106956,0.0113178,0.0113569,-0.00480702,105.817,0.001660156,0.0621877
1.23228,1.23394,0.921339,0.983526,37.013,0.0109167,0.0114884,0.0116197,-0.0048352,105.237,0.001660156,0.0621877
1.25884,1.2605,0.928485,0.990673,37.813,0.0113042,0.0117833,0.0119334,-0.00492994,104.238,0.001660156,0.0621877
1.2853,1.28696,0.948047,1.01023,38.613,0.0114645,0.0120689,0.0121154,-0.00514548,105.272,0.001660156,0.0621877
1.3123,1.31396,0.96051,1.0227,39.413,0.0116692,0.0123311,0.0124453,-0.00512366,105.672,0.001660156,0.0621877
1.33853,1.34019,0.974291,1.03648,40.213,0.0119635,0.0125626,0.0126322,-0.0053271,105.008,0.001660156,0.0621877
1.36514,1.3668,0.985815,1.048,41.013,0.0122118,0.0127648,0.0128686,-0.00544634,104.528,0.001660156,0.0621877
1.39282,1.39448,1.00093,1.06312,41.813,0.0124679,0.0130866,0.0132611,-0.00561922,104.962,0.001660156,0.0621877
1.41855,1.42021,1.01179,1.07397,42.613,0.0126321,0.0133635,0.013401,-0.00567402,105.79,0.001660156,0.0621877
1.44512,1.44678,1.02519,1.08738,43.413,0.0128129,0.0134503,0.0135228,-0.00580784,104.975,0.001660156,0.0621877
1.47236,1.47402,1.03658,1.09877,44.213,0.0132365,0.0138072,0.0140194,-0.0059851,104.312,0.001660156,0.0621877
1.49839,1.50005,1.0474,1.10958,45.013,0.0132498,0.0141473,0.0141499,-0.00601265,106.774,0.001660156,0.0621877
1.52559,1.52725,1.06199,1.12418,45.813,0.0134341,0.0142302,0.0142543,-0.0061804,105.926,0.001660156,0.0621877
1.55234,1.554,1.07308,1.13527,46.613,0.013619,0.0144541,0.01461,-0.00623333,106.132,0.001660156,0.0621877
1.57817,1.57983,1.08132,1.14351,47.413,0.0139638,0.0148541,0.0149083,-0.0063065,106.376,0.001660156,0.0621877
1.60518,1.60684,1.09359,1.15577,48.213,0.0140873,0.0150406,0.0149645,-0.00642471,106.767,0.001660156,0.0621877
1.63242,1.63408,1.10469,1.16688,49.013,0.0142697,0.0152562,0.0153163,-0.00652593,106.913,0.001660156,0.0621877
1.65898,1.66064,1.11659,1.17878,49.813,0.0146853,0.0155037,0.0156,-0.00661235,105.573,0.001660156,0.0621877
1.68555,1.68721,1.12783,1.19002,50.613,0.0147866,0.0157704,0.0157872,-0.00663979,106.653,0.001660156,0.0621877
1.7123,1.71396,1.13764,1.19983,51.413,0.0148911,0.015968,0.0160549,-0.00677567,107.232,0.001660156,0.0621877
1.73838,1.74004,1.14388,1.20607,52.213,0.0152478,0.0161446,0.0162244,-0.00689934,105.882,0.001660156,0.0621877
1.76514,1.7668,1.1522,1.21439,53.013,0.0154404,0.0164232,0.0164475,-0.00696885,106.365,0.001660156,0.0621877
1.79282,1.79448,1.16156,1.22374,53.813,0.0155328,0.0166744,0.0167416,-0.00708431,107.35,0.001660156,0.0621877
1.81851,1.82017,1.16832,1.23051,54.613,0.0157815,0.0167456,0.0167883,-0.00725828,106.109,0.001660156,0.0621877
1.84512,1.84678,1.17378,1.23597,55.413,0.0160014,0.0169355,0.0170254,-0.00726158,105.838,0.001660156,0.0621877
1.87236,1.87402,1.1823,1.24449,56.213,0.0161768,0.0173037,0.0173678,-0.0074104,106.966,0.001660156,0.0621877
1.89824,1.8999,1.18826,1.25045,57.013,0.0162971,0.0173175,0.0173459,-0.00751566,106.261,0.001660156,0.0621877
1.92559,1.92725,1.19595,1.25814,57.813,0.0165407,0.0174731,0.017619,-0.0075807,105.637,0.001660156,0.0621877
1.95288,1.95454,0.483538,0.545725,58.613,0.0162212,NaN,NaN,NaN,NaN,0.001660156,0.0621877
1.97822,1.97988,0.481238,0.543426,59.413,0.0163972,NaN,NaN,NaN,NaN,0.001660156,0.0621877
2.00532,2.00698,0.480288,0.542476,60.213,0.0163558,NaN,NaN,NaN,NaN,0.001660156,0.0621877
2.03271,2.03437,0.107181,0.169369,61.013,NaN,NaN,NaN,NaN,NaN,0.001660156,0.0621877
2.05889,2.06055,0.105242,0.167429,61.813,NaN,NaN,NaN,NaN,NaN,0.001660156,0.0621877
2.08525,2.08691,0.105908,0.168095,62.613,NaN,NaN,NaN,NaN,NaN,0.001660156,0.0621877
2.11226,2.11392,0.103015,0.165203,63.413,NaN,NaN,NaN,NaN,NaN,0.001660156,0.0621877
2.13833,2.13999,0.106306,0.168493,64.213,NaN,NaN,NaN,NaN,NaN,0.001660156,0.0621877
2.16484,2.1665,0.108087,0.170275,65.013,NaN,NaN,NaN,NaN,NaN,0.001660156,0.0621877
2.19277,2.19443,0.107335,0.169522,65.813,NaN,NaN,NaN,NaN,NaN,0.001660156,0.0621877
2.21841,2.22007,0.104233,0.166421,66.613,NaN,NaN,NaN,NaN,NaN,0.001660156,0.0621877
2.24492,2.24658,0.104294,0.166482,67.413,NaN,NaN,NaN,NaN,NaN,0.001660156,0.0621877
2.27231,2.27397,0.104779,0.166967,68.213,NaN,NaN,NaN,NaN,NaN,0.001660156,0.0621877
2.29849,2.30015,0.105245,0.167432,69.013,NaN,NaN,NaN,NaN,NaN,0.001660156,0.0621877
2.32573,2.32739,0.10416,0.166348,69.813,NaN,NaN,NaN,NaN,NaN,0,0