File: DSC/Crystallisation Speed/Crystallisation time at Temperature T/crystal 90 deg.csv
Time,Unsubtracted Heat Flow,Baseline Heat Flow,Program Temperature,Sample Temperature,Approx. Gas Flow,Heat Flow Calibration,Uncorrected Heat Flow,
0.000000,10.4462,0.224742,30.016,30.07,0.000000,1.056615,10.4462,
0.000417,10.4409,0.287188,30.058,30.07,0.000000,1.056615,10.4409,
0.000833,10.438,0.355974,30.095,30.07,0.000000,1.056615,10.438,
0.001250,10.4402,0.430676,30.137,30.07,0.000000,1.056615,10.4402,
0.001667,10.4498,0.509711,30.175,30.07,0.000000,1.056615,10.4498,
0.002083,10.4677,0.593395,30.216,30.07,0.000000,1.056615,10.4677,
0.002500,10.4947,0.680355,30.258,30.066,0.000000,1.056615,10.4947,
0.002917,10.5304,0.770695,30.295,30.066,0.000000,1.056615,10.5304,
0.003333,10.5752,0.863255,30.337,30.066,0.000000,1.056615,10.5752,
0.003750,10.6274,0.957822,30.375,30.07,0.000000,1.056615,10.6274,
0.004167,10.6872,1.053551,30.416,30.07,0.000000,1.056615,10.6872,
0.004583,10.7536,1.150760,30.454,30.07,0.000000,1.056615,10.7536,
0.005000,10.8258,1.247968,30.495,30.07,0.000000,1.056615,10.8258,
0.005417,10.9027,1.346128,30.537,30.066,0.000000,1.056615,10.9027,
0.005833,10.984,1.443970,30.575,30.07,0.000000,1.056615,10.984,
0.006250,11.0695,1.541390,30.616,30.075,0.000000,1.056615,11.0695,
0.006667,11.1579,1.638705,30.654,30.079,0.000000,1.056615,11.1579,
0.007083,11.2489,1.735068,30.695,30.079,0.000000,1.056615,11.2489,
0.007500,11.3415,1.829846,30.737,30.083,0.000000,1.056615,11.3415,
0.007917,11.4362,1.924096,30.775,30.083,0.000000,1.056615,11.4362,
0.008333,11.5312,2.016339,30.816,30.087,0.000000,1.056615,11.5312,
0.008750,11.6269,2.107102,30.854,30.091,0.000000,1.056615,11.6269,
0.009167,11.7234,2.195435,30.895,30.095,0.000000,1.056615,11.7234,
0.009583,11.8194,2.282289,30.933,30.104,0.000000,1.056615,11.8194,
0.010000,11.915,2.366079,30.975,30.116,0.000000,1.056615,11.915,
0.010417,12.0102,2.447649,31.016,30.12,0.000000,1.056615,12.0102,
0.010833,12.1045,2.526473,31.054,30.129,0.000000,1.056615,12.1045,
0.011250,12.1975,2.602338,31.095,30.141,0.000000,1.056615,12.1975,
0.011667,12.2892,2.674610,31.133,30.15,0.000000,1.056615,12.2892,
0.012083,12.3791,2.743713,31.175,30.158,0.000000,1.056615,12.3791,
0.012500,12.4672,2.809117,31.212,30.17,0.000000,1.056615,12.4672,
0.012917,12.553,2.870401,31.254,30.183,0.000000,1.056615,12.553,
0.013333,12.6368,2.927881,31.295,30.195,0.000000,1.056615,12.6368,
0.013750,12.7178,2.980500,31.333,30.208,0.000000,1.056615,12.7178,
0.014167,12.7961,3.028999,31.375,30.225,0.000000,1.056615,12.7961,
0.014583,12.8715,3.072743,31.412,30.237,0.000000,1.056615,12.8715,
0.015000,12.9437,3.111626,31.454,30.254,0.000000,1.056615,12.9437,
,