File: Raw_Data./Tensile Nozzle 0.4 mm/90 Degrees/LH0.1_90D_N0.4/Test 4.csv
Crosshead ,Crosshead ini,Load ,Load ini,Time ,Strain 1 ,Strain 2 ,Strain 3 ,Strain 4 ,PoissonRatio ,,,
0,0.000878906,0,-0.04996772,0.116,1.96E-05,6.03E-05,4.97E-06,-5.71E-06,307.832,-0.000878906,0.000878906,0.04996772
0.00390625,0.004785156,0.001712978,-0.0482547,0.316,2.84E-05,3.01E-05,2.26E-06,4.57E-07,106.084,-0.000878906,,0.04996772
0.0100098,0.0108887,0.0115036,-0.0384641,0.516,5.16E-05,2.89E-05,2.67E-05,1.20E-05,55.9828,-0.000878906,,0.04996772
0.0166992,0.0175781,0.0201574,-0.0298104,0.716,9.53E-05,8.59E-06,7.82E-05,6.02E-05,9.01132,-0.000878906,,0.04996772
0.02368164,0.0245605,0.029903,-0.0200647,0.916,0.000132988,-1.06E-05,0.000120028,0.00011168,-8.00719,-0.000878906,,0.04996772
0.0316406,0.0325195,0.0387528,-0.0112149,1.116,0.000220054,-3.17E-05,0.000215708,0.000201681,-14.4168,-0.000878906,,0.04996772
0.0387207,0.03959961,0.04745969,-0.00250803,1.316,0.000303063,-5.17E-05,0.00029703,0.000285024,-17.0647,-0.000878906,,0.04996772
0.0458496,0.0467285,0.0553177,0.005349951,1.516,0.000338062,-9.31E-05,0.000323793,0.000317482,-27.5439,-0.000878906,,0.04996772
0.0523926,0.0532715,0.0672757,0.017308,1.716,0.000399761,-0.000128216,0.000381914,0.000366198,-32.0732,-0.000878906,,0.04996772
0.0597168,0.0605957,0.075702,0.0257343,1.916,0.000440545,-0.00012645,0.000412633,0.000401072,-28.7031,-0.000878906,,0.04996772
0.0669922,0.0678711,0.0810211,0.0310534,2.116,0.000494217,-7.81E-05,0.000482573,0.000464751,-15.8128,-0.000878906,,0.04996772
0.0738281,0.07470703,0.0922571,0.0422894,2.316,0.000565545,-8.54E-05,0.000550444,0.000536588,-15.099,-0.000878906,,0.04996772
0.0810547,0.0819336,0.0996315,0.0496638,2.516,0.000647963,-9.23E-05,0.000625026,0.000615833,-14.2431,-0.000878906,,0.04996772
0.0875977,0.0884766,0.108203,0.0582354,2.716,0.000721307,-0.000100917,0.000693056,0.000681162,-13.9909,-0.000878906,,0.04996772
0.09453125,0.0954102,0.114849,0.0648814,2.916,0.000820564,-0.000119643,0.00079067,0.000773534,-14.5806,-0.000878906,,0.04996772
0.101318,0.102197,0.12558,0.0756125,3.116,0.000896018,-0.000134741,0.000835641,0.000810167,-15.0378,-0.000878906,,0.04996772
0.10791,0.108789,0.133413,0.0834452,3.316,0.000969366,-0.000162279,0.00091877,0.000907164,-16.7407,-0.000878906,,0.04996772
0.115088,0.115967,0.143536,0.0935684,3.516,0.00100207,-0.00018959,0.000987663,0.000966448,-18.9198,-0.000878906,,0.04996772
0.122168,0.123047,0.14937,0.0994021,3.716,0.000981972,-0.000216062,0.000995438,0.00101818,-22.0029,-0.000878906,,0.04996772
0.12915,0.130029,0.158931,0.108964,3.916,0.00103844,-0.000217655,0.00106215,0.0010894,-20.9598,-0.000878906,,0.04996772
0.135547,0.136426,0.167194,0.117227,4.116,0.00110261,-0.000279888,0.00110415,0.00111275,-25.3841,-0.000878906,,0.04996772
0.141943,0.142822,0.17271,0.122743,4.316,0.00116006,-0.000227386,0.00117117,0.001181,-19.6012,-0.000878906,,0.04996772
0.148828,0.149707,0.181544,0.131577,4.516,0.00118879,-0.000284135,0.00118139,0.00119448,-23.9012,-0.000878906,,0.04996772
0.155908,0.156787,0.188454,0.138486,4.716,0.00127794,-0.000316471,0.00126799,0.00127465,-24.7642,-0.000878906,,0.04996772
0.16333,0.164209,0.198756,0.148788,4.916,0.00132853,-0.00027572,0.00131921,0.00132649,-20.7538,-0.000878906,,0.04996772
0.169434,0.170313,0.207585,0.157618,5.116,0.00140622,-0.000346686,0.00139412,0.00140321,-24.6538,-0.000878906,,0.04996772
0.175732,0.176611,0.215536,0.165568,5.316,0.00145354,-0.000328862,0.0014534,0.00146521,-22.6249,-0.000878906,,0.04996772
0.182324,0.183203,0.219889,0.169921,5.516,0.00152526,-0.00035434,0.00152697,0.00153627,-23.2314,-0.000878906,,0.04996772
0.189111,0.18999,0.227966,0.177998,5.716,0.00163069,-0.000260922,0.00162148,0.00162278,-16.0007,-0.000878906,,0.04996772
0.196777,0.197656,0.23601,0.186043,5.916,0.00168104,-0.000259203,0.00165348,0.00165405,-15.4192,-0.000878906,,0.04996772
0.203223,0.204102,0.247576,0.197609,6.116,0.00175277,-0.000351763,0.00172039,0.00172609,-20.069,-0.000878906,,0.04996772
0.209424,0.210303,0.253539,0.203572,6.316,0.0017907,-0.000339385,0.00175004,0.00176483,-18.9526,-0.000878906,,0.04996772
0.215869,0.216748,0.263668,0.2137,6.516,0.00184483,-0.000320735,0.0018442,0.00184898,-17.3856,-0.000878906,,0.04996772
0.222363,0.223242,0.269657,0.219689,6.716,0.00189557,-0.000346343,0.00190509,0.00192558,-18.2712,-0.000878906,,0.04996772
0.229736,0.230615,0.277293,0.227325,6.916,0.00195969,-0.000422696,0.00194698,0.00195312,-21.5695,-0.000878906,,0.04996772
0.236426,0.237305,0.283171,0.233203,7.116,0.0019848,-0.000444711,0.00197158,0.00198412,-22.4058,-0.000878906,,0.04996772
0.243115,0.243994,0.292957,0.24299,7.316,0.0020759,-0.000415543,0.00204156,0.00204566,-20.0175,-0.000878906,,0.04996772
0.249268,0.250146,0.297301,0.247333,7.516,0.0021504,-0.000417778,0.00211163,0.00212183,-19.4279,-0.000878906,,0.04996772
0.255713,0.256592,0.305956,0.255988,7.716,0.00222002,-0.000428784,0.00219567,0.00220381,-19.3144,-0.000878906,,0.04996772
0.262695,0.263574,0.31283,0.262862,7.916,0.00228525,-0.000436724,0.002262,0.00226334,-19.1106,-0.000878906,,0.04996772
0.269238,0.270117,0.316497,0.26653,8.116,0.00236991,-0.000444982,0.00234406,0.00234461,-18.7763,-0.000878906,,0.04996772
0.276123,0.277002,0.32556,0.275592,8.316,0.00244936,-0.000445716,0.00242802,0.00242969,-18.1972,-0.000878906,,0.04996772
0.282861,0.28374,0.334881,0.284914,8.516,0.00250247,-0.000504752,0.00249048,0.00250125,-20.1702,-0.000878906,,0.04996772
0.289307,0.290186,0.339937,0.289969,8.716,0.0025611,-0.000494633,0.00254186,0.00254514,-19.3133,-0.000878906,,0.04996772
0.29624,0.297119,0.347663,0.297695,8.916,0.00262655,-0.000515957,0.00261008,0.00262021,-19.6439,-0.000878906,,0.04996772
0.302539,0.303418,0.351989,0.302021,9.116,0.00268631,-0.000498124,0.00267969,0.00270455,-18.5431,-0.000878906,,0.04996772
0.30918,0.310059,0.359596,0.309629,9.316,0.00273525,-0.000472712,0.00273439,0.00275606,-17.2822,-0.000878906,,0.04996772
0.316162,0.317041,0.368959,0.318991,9.516,0.00279801,-0.000461963,0.00280226,0.00282256,-16.5104,-0.000878906,,0.04996772
0.323047,0.323926,0.374848,0.32488,9.716,0.00286138,-0.000503642,0.00285221,0.00288049,-17.6014,-0.000878906,,0.04996772
0.329785,0.330664,0.383844,0.333876,9.916,0.0029637,-0.000491594,0.00294884,0.00297169,-16.5872,-0.000878906,,0.04996772
0.335986,0.336865,0.388363,0.338395,10.116,0.00305428,-0.000501031,0.00299403,0.00301361,-16.4042,-0.000878906,,0.04996772
0.342285,0.343164,0.394503,0.344535,10.316,0.00311468,-0.000495451,0.00306193,0.00307437,-15.907,-0.000878906,,0.04996772
0.349121,0.35,0.399493,0.349525,10.516,0.00315367,-0.000546796,0.0031464,0.00316685,-17.3384,-0.000878906,,0.04996772
0.356055,0.356934,0.405263,0.355296,10.716,0.00322603,-0.000529843,0.00321186,0.00323624,-16.424,-0.000878906,,0.04996772
0.363379,0.364258,0.417018,0.36705,10.916,0.00330987,-0.000555477,0.00330881,0.00333588,-16.7824,-0.000878906,,0.04996772
0.369385,0.370264,0.419889,0.369922,11.116,0.00334513,-0.000572755,0.00333746,0.00336051,-17.1221,-0.000878906,,0.04996772
0.375732,0.376611,0.429234,0.379267,11.316,0.00341073,-0.000551184,0.00341729,0.00342988,-16.1603,-0.000878906,,0.04996772
0.382324,0.383203,0.434698,0.384731,11.516,0.00342194,-0.000582368,0.00343066,0.0034434,-17.0187,-0.000878906,,0.04996772
0.389111,0.38999,0.441133,0.391165,11.716,0.00353543,-0.000631331,0.00351475,0.00353181,-17.8573,-0.000878906,,0.04996772
0.396729,0.397607,0.444365,0.394397,11.916,0.00360473,-0.000628224,0.00355102,0.00355753,-17.6054,-0.000878906,,0.04996772
0.403174,0.404053,0.4519394,0.401972,12.116,0.00366318,-0.000605646,0.00364295,0.003659,-16.5333,-0.000878906,,0.04996772
0.409424,0.410303,0.454388,0.40442,12.316,0.00371775,-0.000578749,0.0036918,0.00369925,-15.5672,-0.000878906,,0.04996772
0.41582,0.416699,0.461047,0.41108,12.516,0.00383177,-0.000588108,0.0037945,0.00379568,-15.3482,-0.000878906,,0.04996772
0.422363,0.423242,0.463923,0.413955,12.716,0.0039225,-0.000584563,0.00387473,0.00387797,-14.9028,-0.000878906,,0.04996772
0.429736,0.430615,0.473893,0.423926,12.916,0.00393085,-0.00057647,0.00387044,0.0038752,-14.6653,-0.000878906,,0.04996772
0.436426,0.437305,0.477181,0.427213,13.116,0.00406785,-0.000545342,0.0039997,0.00399169,-13.4061,-0.000878906,,0.04996772
0.443213,0.444092,0.482586,0.432618,13.316,0.00410195,-0.0005583,0.00407222,0.00407215,-13.6106,-0.000878906,,0.04996772
0.449365,0.450244,0.489567,0.4396,13.516,0.00414039,-0.000590852,0.00413594,0.00414393,-14.2704,-0.000878906,,0.04996772
0.455957,0.456836,0.493601,0.443633,13.716,0.00419823,-0.000561922,0.0041935,0.0042005,-13.3847,-0.000878906,,0.04996772
0.462988,0.463867,0.496343,0.446375,13.916,0.00425933,-0.000588018,0.00424261,0.00422453,-13.8054,-0.000878906,,0.04996772
0.464502,0.465381,0.0775547,0.027587,13.959,0.00430513,-0.000588018,0.00424261,0.00422453,-13.6585,-0.000878906,,0.04996772