File: Raw_Data./Tensile Nozzle 0.4 mm/45 Degrees/LH0.2_45D_N0.4/Test 1.csv
Crosshead ,Load ,Time ,Strain 1 ,Strain 2
0.004248047,-0.006704236,0.116,-5.25E-05,1.82E-05
0.0172852,0.00331959,0.316,1.25E-05,1.77E-05
0.0339355,0.0181989,0.516,0.000162021,-5.37E-05
0.051416,0.0318303,0.716,0.00038675,-0.000139609
0.0688477,0.0444873,0.916,0.00054173,-0.000172775
0.0868652,0.0614979,1.116,0.000807501,-0.000272285
0.104199,0.0721772,1.316,0.00101496,-0.00040331
0.121875,0.0845522,1.516,0.001094,-0.000428752
0.139111,0.0995451,1.716,0.00133687,-0.000472427
0.156396,0.113142,1.916,0.00155953,-0.000599017
0.174268,0.12848,2.116,0.00168698,-0.000599335
0.190918,0.138666,2.316,0.00195093,-0.000724788
0.208594,0.154194,2.516,0.00226924,-0.000814435
0.224707,0.166925,2.716,0.00239206,-0.000835132
0.242187,0.180819,2.916,0.0024794,-0.000906776
0.25835,0.189371,3.116,0.00263897,-0.000889312
0.275342,0.202362,3.316,0.00284881,-0.00100438
0.291748,0.211638,3.516,0.0030937,-0.00115123
0.308496,0.220616,3.716,0.00325323,-0.00115867
0.325488,0.231467,3.916,0.00349203,-0.00124128
0.342383,0.242646,4.116,0.00363204,-0.00135425
0.359082,0.254451,4.316,0.0037944,-0.00136971
0.376025,0.266351,4.516,0.00395817,-0.00148406
0.392334,0.278479,4.716,0.00420094,-0.00149608
0.40957,0.287026,4.916,0.00437968,-0.00161496
0.425586,0.295938,5.116,0.00463265,-0.00120051
0.44292,0.305855,5.316,0.00480429,-0.00164522
0.458984,0.317831,5.516,0.00493759,-0.00176952
0.476074,0.324195,5.716,0.00518043,-0.00191297
0.492627,0.335347,5.916,0.00528832,-0.00190962
0.509521,0.339985,6.116,0.00547037,-0.00196659
0.526416,0.351241,6.316,0.00565788,-0.00211172
0.542969,0.361739,6.516,0.00594978,-0.00214547
0.559619,0.36865,6.716,0.00614992,-0.00223523
0.576416,0.379762,6.916,0.00625835,-0.0023061
0.592627,0.386852,7.116,0.00637673,-0.00221717
0.609668,0.396364,7.316,0.00667304,-0.00229757
0.625586,0.402772,7.516,0.00681025,-0.00235371
0.642969,0.409891,7.716,0.00699081,-0.00249542
0.659082,0.418472,7.916,0.00722711,-0.00262796
0.675977,0.427514,8.116,0.00739188,-0.00267632
0.692432,0.43238,8.316,0.00759681,-0.00278881
0.709229,0.442206,8.516,0.00774009,-0.00289096
0.726123,0.450682,8.716,0.00784311,-0.00290455
0.742773,0.459494,8.916,0.00813037,-0.00292551
0.759277,0.46543,9.116,0.00831862,-0.00269604
0.775977,0.470949,9.316,0.0085098,-0.00290484
0.792285,0.478803,9.516,0.00865922,-0.00305405
0.809619,0.484532,9.716,0.00894234,-0.00321694
0.825732,0.493564,9.916,0.00906103,-0.00328973
0.843066,0.498568,10.116,0.00925061,-0.00337791
0.859131,0.505826,10.316,0.0095437,-0.00344783
0.87627,0.511861,10.516,0.00966763,-0.00355578
0.892871,0.518784,10.716,0.00980144,-0.0036302
0.909521,0.524056,10.916,0.00997449,-0.00371216
0.926221,0.531805,11.116,0.0101573,-0.00345592
0.942676,0.537225,11.316,0.0103363,-0.0036253
0.959277,0.544184,11.516,0.0105005,-0.00371574
0.97627,0.548088,11.716,0.0107262,-0.00385158
0.992529,0.55534,11.916,0.0110354,-0.00391658
1.00967,0.564561,12.116,0.0110762,-0.00408627
1.02588,0.567342,12.316,0.0113341,-0.00414942
1.04346,0.576831,12.516,0.0115123,-0.00421942
1.05972,0.579779,12.716,0.0117289,-0.00433494
1.07666,0.584131,12.916,0.0118873,-0.00392423
1.09287,0.591273,13.116,0.0120839,-0.00450702
1.10942,0.594664,13.316,0.0121666,-0.00462264
1.12617,0.601183,13.516,0.0124841,-0.00473624
1.14272,0.608304,13.716,0.0125855,-0.00476875
1.15918,0.611629,13.916,0.012777,-0.00494936
1.17593,0.617938,14.116,0.0128894,-0.00498463
1.19224,0.619851,14.316,0.0131176,-0.00515287
1.209668,0.62999,14.516,0.0133706,-0.00529391
1.22583,0.632297,14.716,0.0134679,-0.00544733
1.24312,0.635308,14.916,0.0136406,-0.00518346
1.25918,0.643702,15.116,0.0139606,-0.00524976
1.27622,0.647161,15.316,0.0141502,-0.00538444
1.29282,0.65015,15.516,0.0142324,-0.00547163
1.30962,0.658786,15.716,0.0144952,-0.00552779
1.32637,0.662347,15.916,0.0146735,-0.00561381
1.34287,0.667342,16.116,0.0148873,-0.00576181
1.35952,0.672191,16.316,0.0150011,-0.00580476
1.37642,0.675558,16.516,0.0153614,-0.00596196
1.39277,0.6806651,16.716,0.015509,-0.00622355
1.40986,0.685697,16.916,0.0156357,-0.00595715
1.42573,0.688126,17.116,0.0158877,-0.00593594
1.44316,0.692738,17.316,0.0159148,-0.00613426
1.45928,0.69755,17.516,0.0162327,-0.00627612
1.47627,0.698961,17.716,0.0163969,-0.00632334
1.49268,0.704529,17.916,0.016628,-0.00640784
1.50933,0.708588,18.116,0.0169172,-0.00650648
1.52622,0.712499,18.316,0.0170445,-0.00659025
1.54292,0.716557,18.516,0.0171724,-0.00669712
1.55957,0.716551,18.716,0.0173773,-0.00684316
1.57627,0.720716,18.916,0.0175595,-0.00671712
1.59258,0.726492,19.116,0.0178357,-0.00690233
1.60977,0.725266,19.316,0.0180361,-0.00695093
1.62578,0.730487,19.516,0.0181717,-0.00709777
1.64307,0.735229,19.716,0.0185276,-0.00720038
1.65918,0.73713,19.916,0.018681,-0.00728793
1.67637,0.743054,20.116,0.0187432,-0.00735253
1.69302,0.745404,20.316,0.0189661,-0.00747033
1.70981,0.745954,20.516,0.0192813,-0.0075216
1.72656,0.749683,20.716,0.0194568,-0.00760595
1.74307,0.750293,20.916,0.0196871,-0.00773557
1.75962,0.755271,21.116,0.0197691,-0.00779722
1.77642,0.758427,21.316,0.0201253,-0.00785034
1.79258,0.761243,21.516,0.0203067,-0.00794698
1.80967,0.761008,21.716,0.0204667,-0.00812196
1.82568,0.764249,21.916,0.02077,-0.00814468
1.84307,0.768776,22.116,0.0209701,-0.00827619
1.85913,0.76761,22.316,0.021215,-0.00838018
1.87617,0.769616,22.516,0.021262,-0.00846427
1.89253,0.770694,22.716,0.0215949,-0.00820888
1.90933,0.775109,22.916,0.0217295,-0.0087347
1.92622,0.775987,23.116,0.0219874,-0.00885757
1.94282,0.780125,23.316,0.0222319,-0.00898999
1.95942,0.778634,23.516,0.0225049,-0.00905676
1.97622,0.781468,23.716,0.0227588,-0.00913577
1.99258,0.783502,23.916,0.0228572,-0.00925439
2.00991,0.787677,24.116,0.0233084,-0.00931999
2.02603,0.787801,24.316,0.0233765,-0.00942852
2.04331,0.789313,24.516,0.0235181,-0.00947197
2.05947,0.790443,24.716,0.0237895,-0.00928964
2.07646,0.791696,24.916,0.0240514,-0.00988699
2.09292,0.797763,25.116,0.0243052,-0.00998558
2.10947,0.795858,25.316,0.0245012,-0.0101276
2.12607,0.792595,25.516,0.0245148,-0.0101817
2.14263,0.793366,25.716,0.0250428,-0.0102958
2.15923,0.796671,25.916,0.025161,-0.010375
2.17612,0.798224,26.116,0.0253964,-0.0104888
2.19243,0.794567,26.316,0.0256956,-0.010613
2.20957,0.801761,26.516,0.0258449,-0.0106259
2.22559,0.798602,26.716,0.026139,-0.0104827
2.24312,0.799355,26.916,0.0263197,-0.0106228
2.25933,0.800962,27.116,0.0267923,-0.01111
2.27622,0.801146,27.316,0.0270017,-0.0112921
2.29253,0.803093,27.516,0.0271461,-0.0114387
2.30933,0.801182,27.716,0.0273648,-0.0115601
2.32622,0.801037,27.916,0.027703,-0.0116326
2.34292,0.803981,28.116,0.0278673,-0.0117323
2.35942,0.803485,28.316,0.0281548,-0.0118079
2.37617,0.806223,28.516,0.0285258,-0.0118798
2.39248,0.801328,28.716,0.0287865,-0.0119394
2.40981,0.804956,28.916,0.0291546,-0.0121009
2.42583,0.803064,29.116,0.0292022,-0.012516
2.44297,0.803169,29.316,0.0294954,-0.012693
2.45884,0.80446,29.516,0.029643,-0.0127905
2.47588,0.804439,29.716,0.0299327,-0.0129049
2.49243,0.804107,29.916,0.0304621,-0.0130341
2.50918,0.803661,30.116,0.0306961,-0.0131201
2.52598,0.804403,30.316,0.0309716,-0.0132578
2.54258,0.803937,30.516,0.03108,-0.0132549
2.55933,0.805843,30.716,0.0313683,-0.0134331
2.57642,0.803307,30.916,0.031574,-0.0135531
2.59282,0.802991,31.116,0.0319009,-0.013585
2.60991,0.802483,31.316,0.0324646,-0.0139952
2.62578,0.800954,31.516,0.0325195,-0.0141741
2.64316,0.803431,31.716,0.032833,-0.0143703
2.65928,0.804494,31.916,0.0329933,-0.0144852
2.67632,0.800014,32.116,0.0332248,-0.0146328
2.69268,0.805813,32.316,0.0334908,-0.0149119
2.70933,0.803071,32.516,0.0337411,-0.0147759
2.72622,0.801514,32.716,0.0343246,-0.014886
2.74292,0.801222,32.916,0.0346945,-0.0149831
2.75962,0.802188,33.116,0.0349754,-0.0151847
2.77622,0.800656,33.316,0.0350489,-0.0154644
2.79238,0.800431,33.516,0.0352805,-0.0157867
2.80957,0.80019,33.716,0.0355085,-0.0159755
2.82549,0.802083,33.916,0.0357981,-0.0161225
2.84277,0.800926,34.116,0.0364855,-0.0162296
2.85894,0.797578,34.316,0.0367123,-0.0164047
2.87603,0.797104,34.516,0.0370288,-0.0166181
2.89258,0.792847,34.716,0.0371292,-0.0165942
2.90957,0.700852,34.916,0.0367019,-0.0167258
2.91152,-0.0663798,34.94,0.0367019,-0.0167258