File: Raw_Data./Tensile Nozzle 0.4 mm/45 Degrees/LH0.2_45D_N0.4/Test 2.csv
Crosshead ,Load ,Time ,Strain 1 ,Strain 2
0.003857422,-0.000168058,0.118,-2.67E-05,-9.75E-06
0.0174316,0.0134386,0.318,2.57E-06,-3.46E-05
0.0341309,0.0284883,0.518,0.000221584,-3.45E-05
0.0521973,0.0437122,0.718,0.000386514,-0.000124469
0.06943359,0.0573368,0.918,0.000578671,-0.00016835
0.0875,0.0766427,1.118,0.00071276,-0.000302008
0.104346,0.0923009,1.318,0.00094077,-0.000320815
0.122363,0.105709,1.518,0.00113825,-0.000370421
0.139258,0.121491,1.718,0.00122912,-0.000393391
0.156934,0.136461,1.918,0.0015922,-0.00050203
0.173926,0.14919,2.118,0.00182862,-0.000543342
0.191113,0.166378,2.318,0.00203144,-0.000644834
0.208301,0.178614,2.518,0.00214968,-0.000709855
0.225,0.188872,2.718,0.00230533,-0.000738885
0.241748,0.203047,2.918,0.00246438,-0.000837242
0.258496,0.215366,3.118,0.0025984,-0.000891028
0.274951,0.228559,3.318,0.0027481,-0.000875458
0.292187,0.242898,3.518,0.0030683,-0.00099135
0.308447,0.2577341,3.718,0.00322439,-0.00102208
0.32583,0.268999,3.918,0.00344985,-0.00112931
0.342139,0.279028,4.118,0.00364055,-0.00117307
0.359326,0.291744,4.318,0.00383632,-0.00124689
0.375977,0.30354,4.518,0.00395268,-0.00123332
0.392725,0.314904,4.718,0.00412386,-0.00129526
0.409521,0.324385,4.918,0.00429984,-0.00141045
0.425928,0.336136,5.118,0.00447805,-0.00142391
0.442871,0.345968,5.318,0.00467512,-0.00143307
0.45957,0.357286,5.518,0.0047899,-0.00154248
0.476025,0.36925,5.718,0.00497687,-0.00157722
0.492969,0.378074,5.918,0.00508843,-0.00161368
0.509228,0.386586,6.118,0.00538786,-0.00171074
0.526611,0.395923,6.318,0.00553321,-0.0017333
0.542871,0.408259,6.518,0.00593693,-0.00180414
0.559766,0.417177,6.718,0.00616135,-0.00188444
0.575977,0.430003,6.918,0.00629333,-0.00189796
0.592529,0.437293,7.118,0.00644111,-0.00195437
0.609473,0.445691,7.318,0.006561,-0.00199565
0.62583,0.456474,7.518,0.00664464,-0.00210709
0.64248,0.463497,7.718,0.0068206,-0.00213641
0.659082,0.473411,7.918,0.00706829,-0.00226404
0.675684,0.485018,8.118,0.0072342,-0.00231572
0.69292,0.497326,8.318,0.00743252,-0.0023655
0.70918,0.501457,8.518,0.00759913,-0.00228444
0.726367,0.509033,8.718,0.00776186,-0.00239976
0.74248,0.518017,8.918,0.00792642,-0.00249623
0.759473,0.526537,9.118,0.00821656,-0.0025208
0.776123,0.534507,9.318,0.00840111,-0.0025685
0.79292,0.542886,9.518,0.00871304,-0.00267931
0.809717,0.552241,9.718,0.0088548,-0.0027716
0.826074,0.562535,9.918,0.00897803,-0.00283358
0.843066,0.566744,10.118,0.00910417,-0.00286327
0.859766,0.575688,10.318,0.00920335,-0.00290035
0.87627,0.583239,10.518,0.00951281,-0.00291916
0.893115,0.590294,10.718,0.00964181,-0.00295977
0.909229,0.599658,10.918,0.00988123,-0.00305342
0.926563,0.605616,11.118,0.0100762,-0.00308242
0.942773,0.611588,11.318,0.0103161,-0.00315689
0.959766,0.621325,11.518,0.0104194,-0.00321869
0.976074,0.628116,11.718,0.0106519,-0.00330796
0.992773,0.634353,11.918,0.0108055,-0.00336434
1.00977,0.643497,12.118,0.0110007,-0.0034195
1.02642,0.648983,12.318,0.0112382,-0.00336922
1.04321,0.6575,12.518,0.0113813,-0.0034369
1.05972,0.66623,12.718,0.0115994,-0.00352652
1.07612,0.669579,12.918,0.0116935,-0.00357298
1.09312,0.675705,13.118,0.0118665,-0.00364836
1.10933,0.681916,13.318,0.0120314,-0.00365195
1.12646,0.689868,13.518,0.0122741,-0.00374621
1.14258,0.695909,13.718,0.0124999,-0.00386669
1.15967,0.701181,13.918,0.0127679,-0.00390054
1.17617,0.709609,14.118,0.0130086,-0.00396537
1.19292,0.716139,14.318,0.0131172,-0.00389022
1.20981,0.721867,14.518,0.0132895,-0.00385986
1.22627,0.726329,14.718,0.0134095,-0.00392269
1.24307,0.731012,14.918,0.0136033,-0.00397296
1.25967,0.738275,15.118,0.0137771,-0.00411939
1.27607,0.743841,15.318,0.0140863,-0.00424286
1.29287,0.752014,15.518,0.0142451,-0.00429735
1.30913,0.754615,15.718,0.0144058,-0.00433645
1.32646,0.759725,15.918,0.0145644,-0.00436594
1.34263,0.766749,16.118,0.0147409,-0.00432164
1.35972,0.772128,16.318,0.0149103,-0.00439398
1.37617,0.774322,16.518,0.0151868,-0.00450502
1.39292,0.782196,16.718,0.0154644,-0.00452275
1.40981,0.789353,16.918,0.0156642,-0.00449198
1.42617,0.790915,17.118,0.0158188,-0.00457084
1.44292,0.798896,17.318,0.0159261,-0.00467716
1.45942,0.801671,17.518,0.0160717,-0.00487388
1.47593,0.806616,17.718,0.0162229,-0.00480753
1.49292,0.809904,17.918,0.0164566,-0.00486513
1.50913,0.813451,18.118,0.0166799,-0.00491319
1.52637,0.818662,18.318,0.0169858,-0.00495503
1.54263,0.824922,18.518,0.0171311,-0.00499425
1.55967,0.829155,18.718,0.0173807,-0.00499864
1.57617,0.829588,18.918,0.0175858,-0.00507806
1.59277,0.833975,19.118,0.0177671,-0.00508342
1.60952,0.838868,19.318,0.0180059,-0.00520699
1.62593,0.840941,19.518,0.018179,-0.00527934
1.64292,0.849635,19.718,0.0184198,-0.00527596
1.65962,0.85396,19.918,0.0185153,-0.00540986
1.67603,0.850569,20.118,0.0186795,-0.00542703
1.69282,0.85741,20.318,0.0188699,-0.0054878
1.70898,0.857374,20.518,0.0191311,-0.00555761
1.72632,0.862427,20.718,0.0193811,-0.00557436
1.74243,0.864148,20.918,0.0196668,-0.00564274
1.75928,0.866711,21.118,0.0199864,-0.00575479
1.77563,0.869039,21.318,0.0201192,-0.00576415
1.79229,0.873422,21.518,0.0203767,-0.00578072
1.80928,0.87725,21.718,0.0205291,-0.00581155
1.82588,0.876897,21.918,0.0207438,-0.00584952
1.84272,0.877082,22.118,0.0209135,-0.0059232
1.85933,0.882619,22.318,0.0211719,-0.00600907
1.87607,0.883127,22.518,0.0213822,-0.00603479
1.89321,0.882812,22.718,0.021562,-0.00609577
1.90962,0.886124,22.918,0.0217732,-0.00614441
1.92676,0.889494,23.118,0.0219959,-0.0061945
1.94282,0.891649,23.318,0.0223148,-0.00621036
1.95981,0.888877,23.518,0.0225593,-0.00622642
1.97632,0.890498,23.718,0.0228897,-0.0063441
1.99302,0.895949,23.918,0.0230539,-0.00637195
2.00981,0.89127,24.118,0.0233146,-0.00641523
2.02617,0.897349,24.318,0.0234812,-0.00647697
2.04307,0.891152,24.518,0.0236551,-0.0064879
2.05972,0.896729,24.718,0.023842,-0.0066504
2.07617,0.896897,24.918,0.0241053,-0.00669232
2.09297,0.897357,25.118,0.0243482,-0.00670131
2.10913,0.903951,25.318,0.0246158,-0.00671634
2.12637,0.900761,25.518,0.0248145,-0.00668188
2.14253,0.899401,25.718,0.0251057,-0.00675206
2.15947,0.900253,25.918,0.0253953,-0.00685804
2.17573,0.900732,26.118,0.0256496,-0.00688083
2.19243,0.8973573,26.318,0.0259886,-0.00695931
2.20942,0.900104,26.518,0.0261964,-0.00696294
2.22598,0.900807,26.718,0.026456,-0.00708009
2.24292,0.900415,26.918,0.0266497,-0.00705763
2.25952,0.906445,27.118,0.0268523,-0.00708345
2.27603,0.902492,27.318,0.0270193,-0.00719616
2.29307,0.901457,27.518,0.0273305,-0.007319
2.30928,0.903469,27.718,0.0276738,-0.00733218
2.32646,0.903391,27.918,0.0279774,-0.00741302
2.34263,0.903863,28.118,0.0281186,-0.00745228
2.35962,0.901848,28.318,0.0283712,-0.00744177
2.37612,0.903212,28.518,0.0287604,-0.00749331
2.39282,0.898912,28.718,0.0289956,-0.0075383
2.40957,0.901425,28.918,0.0293242,-0.00761972
2.42593,0.905144,29.118,0.0295815,-0.00766777
2.44277,0.899992,29.318,0.0299224,-0.00778306
2.45937,0.897251,29.518,0.0300812,-0.00786544
2.47583,0.89619,29.718,0.0303644,-0.00787184
2.49268,0.896052,29.918,0.0305004,-0.0078698
2.50894,0.897969,30.118,0.0308599,-0.00798654
2.52642,0.897672,30.318,0.0312597,-0.00803467
2.54268,0.898446,30.518,0.0315428,-0.00808745
2.55972,0.895556,30.718,0.0319165,-0.00811395
2.57612,0.897965,30.918,0.0320864,-0.00821385
2.59292,0.896989,31.118,0.0324363,-0.00824738
2.60986,0.456422,31.318,0.0326533,-0.0082874
2.61069,-0.08607933,31.328,0.0326533,-0.0082874