File: Raw_Data./Tensile Nozzle 0.4 mm/90 Degrees/LH0.2_90D_N0.4/Test 3.csv
Crosshead ,Crosshead ini,Load ,Load ini,Time ,Strain 1 ,Strain 2 ,Strain 3 ,Strain 4 ,PoissonRatio ,,,
0,0.000878906,0,-0.003381635,0.122,5.86E-06,3.17E-05,3.21E-06,6.96E-06,541.926,-0.000878906,0.000878906,0.003381635
0.006591797,0.007470703,0.006401315,0.00301968,0.422,1.32E-05,-3.70E-06,1.05E-05,4.58E-06,-27.9864,-0.000878906,,0.003381635
0.0161621,0.017041,0.0185707,0.015189,0.722,8.29E-05,-3.81E-05,7.62E-05,7.09E-05,-46.004,-0.000878906,,0.003381635
0.02709961,0.0279785,0.0348041,0.0314224,1.022,0.000186104,-0.000102649,0.00017237,0.000182632,-55.1568,-0.000878906,,0.003381635
0.0381348,0.03901367,0.0486567,0.045275,1.322,0.00027297,-0.000147745,0.000268489,0.000257691,-54.125,-0.000878906,,0.003381635
0.0486328,0.04951172,0.0624736,0.059092,1.622,0.000373897,-0.000195787,0.000356474,0.000347878,-52.3639,-0.000878906,,0.003381635
0.0593262,0.0602051,0.0771446,0.073763,1.922,0.000420322,-0.000155311,0.000451386,0.000401326,-36.9505,-0.000878906,,0.003381635
0.069873,0.07075195,0.09170635,0.0883247,2.222,0.000546062,-0.000208722,0.000537685,0.000512099,-38.2231,-0.000878906,,0.003381635
0.0807617,0.0816406,0.105427,0.102046,2.522,0.00065717,-0.000246413,0.000651882,0.000636488,-37.4961,-0.000878906,,0.003381635
0.090625,0.0915039,0.118595,0.115214,2.822,0.000767256,-0.000260824,0.000765666,0.000732746,-33.9944,-0.000878906,,0.003381635
0.101172,0.102051,0.132271,0.12889,3.122,0.000908203,-0.00036106,0.000902293,0.000852791,-39.7554,-0.000878906,,0.003381635
0.111328,0.112207,0.14378,0.140399,3.422,0.000978935,-0.000438432,0.000990003,0.000960438,-44.7866,-0.000878906,,0.003381635
0.12207,0.122949,0.160075,0.156694,3.722,0.00108092,-0.000463865,0.00109024,0.00104452,-42.9139,-0.000878906,,0.003381635
0.13252,0.133398,0.176942,0.17356,4.022,0.00114455,-0.000548683,0.00115419,0.0011221,-47.9388,-0.000878906,,0.003381635
0.141943,0.142822,0.186308,0.182926,4.322,0.00122985,-0.000595122,0.0012346,0.00120192,-48.3898,-0.000878906,,0.003381635
0.152393,0.153271,0.200661,0.19728,4.622,0.00132207,-0.000601464,0.00133265,0.00129075,-45.4941,-0.000878906,,0.003381635
0.163281,0.16416,0.213357,0.209976,4.922,0.00140794,-0.000646593,0.00142861,0.0013939,-45.9248,-0.000878906,,0.003381635
0.172559,0.173437,0.225286,0.221905,5.222,0.00153392,-0.000623369,0.00155062,0.00149446,-40.639,-0.000878906,,0.003381635
0.182324,0.183203,0.238556,0.235174,5.522,0.00158595,-0.000666688,0.00160565,0.00157757,-42.0371,-0.000878906,,0.003381635
0.192969,0.193848,0.247271,0.243889,5.822,0.00171512,-0.000681598,0.0017216,0.00170033,-39.7405,-0.000878906,,0.003381635
0.203223,0.204102,0.26425,0.260868,6.122,0.0017814,-0.000748939,0.00179436,0.00177533,-42.0422,-0.000878906,,0.003381635
0.212793,0.213672,0.274033,0.270651,6.422,0.00187645,-0.000819458,0.00189649,0.00186901,-43.6707,-0.000878906,,0.003381635
0.222314,0.223193,0.287172,0.283791,6.722,0.00197248,-0.000856316,0.00198853,0.00195338,-43.4132,-0.000878906,,0.003381635
0.233301,0.23418,0.298351,0.294969,7.022,0.002048,-0.000916899,0.00206749,0.0020275,-44.7705,-0.000878906,,0.003381635
0.243066,0.243945,0.308493,0.305112,7.322,0.00221107,-0.000969863,0.00223076,0.00214056,-43.864,-0.000878906,,0.003381635
0.252441,0.25332,0.321261,0.317879,7.622,0.00232672,-0.00102022,0.0023462,0.0022815,-43.848,-0.000878906,,0.003381635
0.262695,0.263574,0.332511,0.32913,7.922,0.00241808,-0.00104989,0.00244748,0.00238703,-43.4183,-0.000878906,,0.003381635
0.272656,0.273535,0.344537,0.341155,8.222,0.00250412,-0.000999344,0.00254223,0.00248798,-39.908,-0.000878906,,0.003381635
0.282812,0.283691,0.356049,0.352667,8.522,0.00259808,-0.00105101,0.00264195,0.00258956,-40.4533,-0.000878906,,0.003381635
0.292773,0.293652,0.365858,0.362476,8.822,0.00264352,-0.00109777,0.0026993,0.00264186,-41.5268,-0.000878906,,0.003381635
0.302539,0.303418,0.37835,0.374969,9.122,0.00273829,-0.00112914,0.0027879,0.00272212,-41.2352,-0.000878906,,0.003381635
0.312793,0.313672,0.389169,0.385787,9.422,0.00284897,-0.00120344,0.00291617,0.00283398,-42.2412,-0.000878906,,0.003381635
0.322949,0.323828,0.401163,0.397782,9.722,0.00296768,-0.00121344,0.00301551,0.0029466,-40.8885,-0.000878906,,0.003381635
0.333008,0.333887,0.411025,0.407643,10.022,0.00308363,-0.00128073,0.00313655,0.00307649,-41.5332,-0.000878906,,0.003381635
0.342188,0.343066,0.419508,0.416126,10.322,0.00316633,-0.00134871,0.00320429,0.00314692,-42.5954,-0.000878906,,0.003381635
0.352637,0.353516,0.431773,0.428392,10.622,0.00322765,-0.00139592,0.00328022,0.00321618,-43.2488,-0.000878906,,0.003381635
0.36333,0.364209,0.444051,0.440669,10.922,0.00330525,-0.00148389,0.00335647,0.0033183,-44.8949,-0.000878906,,0.003381635
0.372412,0.373291,0.450484,0.447102,11.222,0.00339413,-0.00148552,0.00343908,0.00338589,-43.7673,-0.000878906,,0.003381635
0.382275,0.383154,0.46215,0.458768,11.522,0.0034839,-0.00141975,0.00352192,0.00347132,-40.7517,-0.000878906,,0.003381635
0.392822,0.393701,0.469263,0.465881,11.822,0.00364685,-0.00147049,0.0036979,0.00362783,-40.3222,-0.000878906,,0.003381635
0.403076,0.403955,0.481262,0.47788,12.122,0.00377296,-0.00150275,0.00381568,0.00372716,-39.8295,-0.000878906,,0.003381635
0.412695,0.413574,0.489288,0.485906,12.422,0.00384785,-0.00153137,0.0039107,0.00381698,-39.7981,-0.000878906,,0.003381635
0.422314,0.423193,0.498395,0.495014,12.722,0.00396854,-0.00162224,0.00402778,0.00393032,-40.8775,-0.000878906,,0.003381635
0.433301,0.43418,0.510255,0.506873,13.022,0.00405423,-0.00166256,0.00411996,0.00403867,-41.008,-0.000878906,,0.003381635
0.443164,0.444043,0.515978,0.512597,13.322,0.0041429,-0.00170845,0.00422414,0.00415088,-41.238,-0.000878906,,0.003381635
0.452588,0.453467,0.5267,0.523318,13.622,0.00420883,-0.001751,0.00430299,0.00420537,-41.603,-0.000878906,,0.003381635
0.462939,0.463818,0.535683,0.532301,13.922,0.00433103,-0.00180766,0.00440564,0.00432503,-41.7374,-0.000878906,,0.003381635
0.473047,0.473926,0.545535,0.542154,14.222,0.00442271,-0.00180261,0.00449842,0.00440527,-40.758,-0.000878906,,0.003381635
0.483105,0.483984,0.556058,0.552676,14.522,0.00453963,-0.00179087,0.00462017,0.00453662,-39.4497,-0.000878906,,0.003381635
0.493018,0.493896,0.563683,0.560302,14.822,0.00465675,-0.0018299,0.0047308,0.00464606,-39.2956,-0.000878906,,0.003381635
0.502734,0.503613,0.567535,0.564154,15.122,0.00472672,-0.00182806,0.0047972,0.00473843,-38.675,-0.000878906,,0.003381635
0.512939,0.513818,0.580634,0.577252,15.422,0.00480141,-0.0018686,0.00486807,0.00480555,-38.9177,-0.000878906,,0.003381635
0.523096,0.523975,0.583645,0.580263,15.722,0.00484673,-0.00191865,0.00495757,0.00486182,-39.5865,-0.000878906,,0.003381635
0.5332031,0.534082,0.594232,0.59085,16.022,0.00500107,-0.00199764,0.00507214,0.00499743,-39.9443,-0.000878906,,0.003381635
0.542334,0.543213,0.599802,0.59642,16.322,0.00510155,-0.00202689,0.00516811,0.0050718,-39.7309,-0.000878906,,0.003381635
0.552637,0.553516,0.607597,0.604215,16.622,0.00524809,-0.00204558,0.00529866,0.00519469,-38.9776,-0.000878906,,0.003381635
0.563428,0.564307,0.616517,0.613135,16.922,0.00538707,-0.00207782,0.00545838,0.00533592,-38.5705,-0.000878906,,0.003381635
0.572461,0.57334,0.621562,0.618181,17.222,0.00544706,-0.0021201,0.00551962,0.00542531,-38.9219,-0.000878906,,0.003381635
0.582275,0.583154,0.626595,0.623213,17.522,0.00552346,-0.00205055,0.00559894,0.00551499,-37.1244,-0.000878906,,0.003381635
0.589258,0.590137,0.0134363,0.0100546,17.727,0.00558081,-0.00205731,0.00564723,0.00557642,-36.864,-0.000878906,,0.003381635