File: Raw_Data./Tensile Nozzle 0.4 mm/90 Degrees/LH0.2_90D_N0.4/Test 4.csv
Crosshead ,Crosshead ini,Load ,Load ini,Time ,Strain 1 ,Strain 2 ,Strain 3 ,Strain 4 ,PoissonRatio
0,0.000830078,0,-0.00818835,0.119,2.65E-05,1.77E-06,3.00E-05,3.19E-05,6.68868
0.006835937,0.007666015,0.005953212,-0.002235138,0.419,4.79E-05,1.18E-05,5.20E-05,3.67E-05,24.6644
0.0165527,0.0173828,0.0229532,0.0147648,0.719,0.000112908,-5.12E-05,0.000118185,0.000105292,-45.3628
0.0276367,0.0284668,0.0357448,0.0275565,1.019,0.000191375,-9.08E-05,0.00020009,0.000192218,-47.46252
0.038623,0.0394531,0.0514588,0.0432704,1.319,0.000276489,-0.000184406,0.000289229,0.000273109,-66.6956
0.0489746,0.0498047,0.0644452,0.0562569,1.619,0.000338592,-0.000215464,0.000334097,0.000313992,-63.6353
0.0597168,0.0605469,0.0794935,0.0713052,1.919,0.000410517,-0.000180972,0.000413854,0.000405567,-44.0839
0.070166,0.0709961,0.09690282,0.08871447,2.219,0.000508561,-0.000230596,0.00051293,0.00049194,-45.3428
0.0810059,0.08183594,0.108883,0.100694,2.519,0.000626023,-0.000297728,0.000627916,0.000589648,-47.5586
0.0907715,0.0916016,0.12183,0.113641,2.819,0.000737743,-0.000383451,0.000737131,0.000685986,-51.9762
0.101318,0.102148,0.136331,0.128143,3.119,0.000827166,-0.000439044,0.000842203,0.000817061,-53.0781
0.111426,0.112256,0.15203,0.143841,3.419,0.000938678,-0.000510932,0.000945927,0.000904962,-54.431
0.122119,0.122949,0.163327,0.155139,3.719,0.000995236,-0.000557126,0.00101312,0.000978964,-55.9793
0.13252,0.13335,0.18152,0.173332,4.019,0.00107821,-0.000610412,0.00108841,0.0010876,-56.6135
0.141895,0.142725,0.193122,0.184934,4.319,0.00114717,-0.000658764,0.00117677,0.0011517,-57.4251
0.152344,0.153174,0.209605,0.201417,4.619,0.00126843,-0.0007026,0.00126381,0.00124093,-55.3913
0.163281,0.164111,0.220958,0.21277,4.919,0.00135213,-0.000752638,0.00134613,0.00132492,-55.6631
0.17251,0.17334,0.231669,0.22348,5.219,0.0014484,-0.000724328,0.00144894,0.00145002,-50.0088
0.182324,0.183154,0.244897,0.236709,5.519,0.00153563,-0.000793958,0.00158189,0.00155767,-51.7024
0.19292,0.19375,0.261101,0.252912,5.819,0.00164672,-0.000822444,0.00166598,0.00164967,-49.9444
0.203223,0.204053,0.273687,0.265499,6.119,0.0017256,-0.000889662,0.00174554,0.00175991,-51.5567
0.212744,0.213574,0.280647,0.272459,6.419,0.00180126,-0.000882123,0.0018337,0.0018284,-48.9726
0.222363,0.223193,0.297374,0.289186,6.719,0.00189761,-0.000975592,0.00190493,0.0018707,-51.4116
0.233301,0.234131,0.310132,0.301943,7.019,0.00194887,-0.00101108,0.00195263,0.00195185,-51.8803
0.243066,0.243896,0.322097,0.313909,7.319,0.00210089,-0.00107864,0.00210033,0.00208957,-51.3421
0.252441,0.253271,0.333569,0.325381,7.619,0.00220098,-0.0011447,0.0022096,0.00218265,-52.0087
0.262646,0.263477,0.343958,0.335769,7.919,0.00233393,-0.00117064,0.00233588,0.0022862,-50.1575
0.272656,0.273486,0.357452,0.349264,8.219,0.00240258,-0.00119937,0.0024206,0.00240755,-49.9201
0.282813,0.283643,0.367541,0.359352,8.519,0.00247814,-0.00118619,0.00252902,0.00250354,-47.8661
0.292773,0.293604,0.381698,0.373509,8.819,0.00257256,-0.0012455,0.00259145,0.0025822,-48.4148
0.302539,0.303369,0.390371,0.382183,9.119,0.00266331,-0.00129881,0.0026767,0.0026328,-48.7668
0.312744,0.313574,0.40656,0.398372,9.419,0.00275969,-0.00135903,0.00276472,0.00276379,-49.2457
0.322949,0.323779,0.415465,0.407276,9.719,0.00286046,-0.00140912,0.00287953,0.00285504,-49.262
0.333057,0.333887,0.428736,0.420548,10.019,0.00296416,-0.00145495,0.00296419,0.00294647,-49.0847
0.342236,0.343066,0.439269,0.431081,10.319,0.00305956,-0.00147892,0.00306758,0.00304675,-48.3377
0.352588,0.353418,0.448373,0.440185,10.619,0.00313919,-0.00154818,0.00317845,0.00317174,-49.3178
0.36333,0.36416,0.464976,0.456788,10.919,0.00323597,-0.00160722,0.00327006,0.0032612,-49.6673
0.372412,0.373242,0.469214,0.461026,11.219,0.00330794,-0.00164381,0.00333076,0.00331013,-49.6929
0.3822754,0.383105,0.482076,0.473887,11.519,0.00336091,-0.0016831,0.00337232,0.0033893,-50.0787
0.392871,0.393701,0.492332,0.484144,11.819,0.00346593,-0.00170112,0.00347922,0.00346308,-49.0812
0.403076,0.403906,0.50304,0.494852,12.119,0.00363631,-0.00169685,0.00361719,0.00357836,-46.6641
0.412695,0.413525,0.513336,0.505148,12.419,0.00375329,-0.00174129,0.00373616,0.00368378,-46.3937
0.422314,0.423145,0.522633,0.514445,12.719,0.00384936,-0.00180621,0.0038522,0.00381947,-46.9223
0.433301,0.434131,0.532939,0.524751,13.019,0.00395307,-0.00186496,0.00397867,0.00390802,-47.1775
0.443115,0.443945,0.544919,0.53673,13.319,0.00402879,-0.00189137,0.00406361,0.00403075,-46.9464
0.452588,0.453418,0.553137,0.544948,13.619,0.00413301,-0.00190482,0.00416266,0.00415349,-46.088
0.462939,0.46377,0.563597,0.555409,13.919,0.00421108,-0.00194947,0.00424266,0.00422889,-46.2938
0.472998,0.473828,0.571685,0.563497,14.219,0.00433698,-0.00202752,0.00433376,0.00432246,-46.7496
0.483105,0.483936,0.583013,0.574825,14.519,0.00445351,-0.00205181,0.00443854,0.00439761,-46.0717
0.493018,0.493848,0.598344,0.590155,14.819,0.00452706,-0.0020816,0.00457864,0.00452498,-45.9813
0.502734,0.503564,0.601126,0.592937,15.119,0.00463897,-0.00212226,0.00466941,0.00464371,-45.7485
0.512939,0.51377,0.612109,0.603921,15.419,0.00470898,-0.0021548,0.00474839,0.00474907,-45.7594
0.523145,0.523975,0.622918,0.614729,15.719,0.00479086,-0.00218448,0.00483704,0.00485589,-45.5968
0.533252,0.534082,0.628836,0.620648,16.019,0.00489765,-0.00222183,0.00494078,0.00493413,-45.3652
0.542334,0.543164,0.638157,0.629968,16.319,0.00501888,-0.00231015,0.00501815,0.00500393,-46.0292
0.552686,0.553516,0.646543,0.638354,16.619,0.00508678,-0.00231602,0.00506851,0.00505473,-45.5302
0.563428,0.564258,0.659484,0.651296,16.919,0.00522259,-0.00237683,0.00519448,0.00517073,-45.5106
0.57251,0.57334,0.665256,0.657068,17.219,0.00533017,-0.0024209,0.00530485,0.0052814,-45.4188
0.582275,0.583105,0.672217,0.664029,17.519,0.00543262,-0.00246539,0.00543336,0.00538777,-45.3812
0.592871,0.593701,0.68173,0.673542,17.819,0.00552466,-0.00247945,0.00553907,0.0055163,-44.8797
0.603076,0.603906,0.690067,0.681878,18.119,0.00560103,-0.00250007,0.00566269,0.00560423,-44.6359
0.612646,0.613477,0.696795,0.688607,18.419,0.0057089,-0.0025349,0.00571959,0.00569041,-44.4026
0.622266,0.623096,0.706503,0.698315,18.719,0.00579986,-0.00255291,0.00579236,0.005775,-44.0168
0.633301,0.634131,0.714177,0.705989,19.019,0.00592234,-0.00259127,0.00592517,0.00589991,-43.7542
0.643115,0.643945,0.722556,0.714367,19.319,0.00599956,-0.00263931,0.00598691,0.00597953,-43.9917
0.652539,0.653369,0.731272,0.723083,19.619,0.00611969,-0.00270892,0.00613606,0.00609459,-44.2656
0.662793,0.663623,0.739858,0.73167,19.919,0.00615639,-0.00274399,0.00618988,0.00618501,-44.5714
0.672656,0.673486,0.746712,0.738523,20.219,0.00626843,-0.00273668,0.00634141,0.00632236,-43.6581
0.682715,0.683545,0.751518,0.743329,20.519,0.00634752,-0.00278186,0.00638393,0.00638289,-43.8259
0.692529,0.693359,0.759164,0.750975,20.819,0.00645461,-0.00282618,0.00645821,0.00647202,-43.7854
0.702295,0.703125,0.765708,0.75752,21.119,0.0065775,-0.00284046,0.00657677,0.00655869,-43.1845
0.712402,0.713232,0.77163,0.763442,21.419,0.00666899,-0.00286383,0.00662579,0.00660882,-42.9425
0.722656,0.723486,0.779353,0.771164,21.719,0.00681922,-0.00288907,0.00677128,0.00671657,-42.3666
0.732764,0.733594,0.784795,0.776607,22.019,0.00692083,-0.00292676,0.00688549,0.00682365,-42.2891
0.739551,0.740381,-0.009439574,-0.0176279,22.238,0.00699389,-0.00293968,0.00700788,0.00693822,-42.0321