File: Raw_Data./Tensile Nozzle 0.4 mm/90 Degrees/LH0.2_90D_N0.4/Test 2.csv
Crosshead ,Crosshead ini,Load ,Load ini,Time ,Strain 1 ,Strain 2 ,Strain 3 ,Strain 4 ,PoissonRatio ,,,
0,0.00078125,0,0.00646808,0.112,-3.07E-05,6.15E-06,-4.12E-05,-3.95E-05,-19.9958,-0.00078125,0.00078125,-0.00646808
0.006738281,0.007519531,0.006791758,0.0132598,0.412,-3.37E-05,-1.69E-05,2.69E-06,-4.14E-06,49.9924,-0.00078125,,-0.00646808
0.01640625,0.0171875,0.0197702,0.0262383,0.712,4.46E-05,-2.59E-05,7.05E-05,6.58E-05,-58.0935,-0.00078125,,-0.00646808
0.0273926,0.0281738,0.0360268,0.0424949,1.012,0.000161975,-7.48E-05,0.000219967,0.000183163,-46.1827,-0.00078125,,-0.00646808
0.0383789,0.0391602,0.05367792,0.060146,1.312,0.000335071,-5.10E-05,0.00033439,0.000325341,-15.2244,-0.00078125,,-0.00646808
0.0488281,0.0496094,0.0634584,0.0699264,1.612,0.000393115,-7.28E-05,0.000403297,0.000385381,-18.5122,-0.00078125,,-0.00646808
0.0595215,0.0603027,0.07820851,0.08467659,1.912,0.000464793,-0.000143528,0.000495775,0.000459351,-30.88,-0.00078125,,-0.00646808
0.0700195,0.0708008,0.0949045,0.101373,2.212,0.000649475,-3.15E-05,0.00067267,0.000658188,-4.84922,-0.00078125,,-0.00646808
0.080957,0.0817383,0.10933,0.115798,2.512,0.000769096,-8.70E-05,0.000794544,0.000781436,-11.307,-0.00078125,,-0.00646808
0.0907227,0.0915039,0.119995,0.126463,2.812,0.000908352,-9.38E-05,0.000923734,0.000900886,-10.3232,-0.00078125,,-0.00646808
0.101318,0.1021,0.135243,0.141711,3.112,0.00101165,-8.83E-05,0.0010455,0.000990258,-8.72475,-0.00078125,,-0.00646808
0.111426,0.112207,0.147404,0.153872,3.412,0.00115076,-0.000126292,0.00116298,0.00113044,-10.9747,-0.00078125,,-0.00646808
0.122119,0.1229,0.162547,0.169015,3.712,0.00118186,-0.000167786,0.00118597,0.00115485,-14.1968,-0.00078125,,-0.00646808
0.132568,0.13335,0.176707,0.183175,4.012,0.00137144,-0.000208986,0.00139421,0.00133124,-15.2384,-0.00078125,,-0.00646808
0.141943,0.142725,0.188515,0.194983,4.312,0.00148349,-0.000237788,0.00149971,0.00146617,-16.029,-0.00078125,,-0.00646808
0.152441,0.153223,0.201435,0.207903,4.612,0.00155376,-0.000216063,0.00156926,0.0015343,-13.9058,-0.00078125,,-0.00646808
0.163379,0.16416,0.214505,0.220973,4.912,0.00169093,-0.000243671,0.00170498,0.00166649,-14.4105,-0.00078125,,-0.00646808
0.172559,0.17334,0.226833,0.233301,5.212,0.00178602,-0.000213986,0.00183864,0.00178019,-11.9812,-0.00078125,,-0.00646808
0.182373,0.183154,0.24231,0.248778,5.512,0.00189404,-0.000212092,0.00191288,0.00189156,-11.1979,-0.00078125,,-0.00646808
0.192969,0.19375,0.254462,0.26093,5.812,0.00197903,-0.00021115,0.00199274,0.00197987,-10.6694,-0.00078125,,-0.00646808
0.203271,0.204053,0.268688,0.275156,6.112,0.00207063,-0.000245208,0.00211268,0.00206393,-11.8422,-0.00078125,,-0.00646808
0.212793,0.213574,0.280046,0.286514,6.412,0.00218625,-0.000251741,0.00219326,0.00215976,-11.5147,-0.00078125,,-0.00646808
0.222363,0.223145,0.289807,0.296276,6.712,0.00225652,-0.000301558,0.00225853,0.00222135,-13.3639,-0.00078125,,-0.00646808
0.23335,0.234131,0.304583,0.311051,7.012,0.00237742,-0.000317274,0.00239475,0.00236815,-13.3453,-0.00078125,,-0.00646808
0.243115,0.243896,0.318735,0.325203,7.312,0.00254867,-0.000378833,0.00254738,0.00247659,-14.8639,-0.00078125,,-0.00646808
0.25249,0.253271,0.327864,0.334332,7.612,0.00266979,-0.000387743,0.00266244,0.00260831,-14.5234,-0.00078125,,-0.00646808
0.262695,0.263477,0.340911,0.347379,7.912,0.00274925,-0.000412816,0.00274725,0.00269081,-15.0156,-0.00078125,,-0.00646808
0.272754,0.273535,0.351303,0.357771,8.212,0.00288074,-0.000363503,0.00289868,0.00281523,-12.6184,-0.00078125,,-0.00646808
0.28291,0.283691,0.363253,0.369721,8.512,0.00299184,-0.000314733,0.00297737,0.00292627,-10.5197,-0.00078125,,-0.00646808
0.292822,0.293604,0.375052,0.38152,8.812,0.00307933,-0.000340649,0.00307645,0.00301938,-11.0624,-0.00078125,,-0.00646808
0.302588,0.303369,0.386104,0.392572,9.112,0.00320859,-0.000349997,0.00321442,0.00314988,-10.9081,-0.00078125,,-0.00646808
0.312793,0.313574,0.397783,0.404252,9.412,0.0032628,-0.00039795,0.00331137,0.00320396,-12.1966,-0.00078125,,-0.00646808
0.323047,0.323828,0.406623,0.413091,9.712,0.00340787,-0.00042146,0.00341608,0.00334724,-12.3673,-0.00078125,,-0.00646808
0.333105,0.333887,0.418867,0.425335,10.012,0.00347618,-0.00044894,0.00349769,0.00345372,-12.9148,-0.00078125,,-0.00646808
0.342285,0.343066,0.429858,0.436326,10.312,0.00359717,-0.000471792,0.00359236,0.00356031,-13.1156,-0.00078125,,-0.00646808
0.352637,0.353418,0.439727,0.446196,10.612,0.00369369,-0.000480712,0.00368685,0.0036354,-13.0144,-0.00078125,,-0.00646808
0.363379,0.36416,0.453596,0.460064,10.912,0.00378249,-0.000510994,0.00377216,0.00373389,-13.5095,-0.00078125,,-0.00646808
0.372461,0.373242,0.460285,0.466753,11.212,0.0038697,-0.000495878,0.00387494,0.00383746,-12.8144,-0.00078125,,-0.00646808
0.382324,0.383105,0.469757,0.476226,11.512,0.00399458,-0.000509161,0.00397294,0.00393141,-12.7463,-0.00078125,,-0.00646808
0.39292,0.393701,0.482799,0.489267,11.812,0.00412108,-0.000481677,0.00411375,0.00404131,-11.6881,-0.00078125,,-0.00646808
0.403125,0.403906,0.49537,0.501838,12.112,0.00427405,-0.000517001,0.00427559,0.00420768,-12.0963,-0.00078125,,-0.00646808
0.412744,0.413525,0.503586,0.510055,12.412,0.00430888,-0.000478345,0.00430319,0.00425285,-11.1014,-0.00078125,,-0.00646808
0.422363,0.423145,0.513749,0.520217,12.712,0.00444651,-0.00053428,0.00442363,0.00435142,-12.0157,-0.00078125,,-0.00646808
0.43335,0.434131,0.523458,0.529926,13.012,0.00456542,-0.000538863,0.0045299,0.00446467,-11.8031,-0.00078125,,-0.00646808
0.443213,0.443994,0.530306,0.536774,13.312,0.00464572,-0.000546603,0.00464114,0.0045687,-11.7657,-0.00078125,,-0.00646808
0.452686,0.453467,0.542651,0.549119,13.612,0.00480595,-0.000590666,0.00475845,0.00467994,-12.2903,-0.00078125,,-0.00646808
0.463037,0.463818,0.54807,0.554538,13.912,0.00494744,-0.000613945,0.00493944,0.00482764,-12.4093,-0.00078125,,-0.00646808
0.473096,0.473877,0.561299,0.567767,14.212,0.00502944,-0.000625745,0.00504593,0.00495289,-12.4416,-0.00078125,,-0.00646808
0.483203,0.483984,0.570695,0.577164,14.512,0.00508106,-0.000632488,0.00509215,0.00502991,-12.448,-0.00078125,,-0.00646808
0.493115,0.493896,0.579421,0.585889,14.812,0.00519049,-0.000584135,0.00523935,0.00516058,-11.2539,-0.00078125,,-0.00646808
0.502783,0.503564,0.587389,0.593857,15.112,0.00530243,-0.000583504,0.00531556,0.00526465,-11.0045,-0.00078125,,-0.00646808
0.512939,0.513721,0.594758,0.601227,15.412,0.00539984,-0.000582711,0.00539568,0.00535709,-10.7913,-0.00078125,,-0.00646808
0.523145,0.523926,0.607034,0.613502,15.712,0.00547584,-0.000623869,0.00548771,0.00540952,-11.3931,-0.00078125,,-0.00646808
0.533252,0.534033,0.613326,0.619794,16.012,0.00560715,-0.000614123,0.00561292,0.00553317,-10.9525,-0.00078125,,-0.00646808
0.542334,0.543115,0.621582,0.62805,16.312,0.00570817,-0.000631994,0.00569761,0.00560949,-11.0717,-0.00078125,,-0.00646808
0.552734,0.553516,0.629798,0.636266,16.612,0.00580523,-0.000648038,0.00579277,0.00571129,-11.163,-0.00078125,,-0.00646808
0.563428,0.564209,0.63892,0.645388,16.912,0.00589625,-0.000674806,0.00591194,0.00581068,-11.4447,-0.00078125,,-0.00646808
0.57251,0.573291,0.646904,0.653372,17.212,0.0060131,-0.000673973,0.00599586,0.00592089,-11.2084,-0.00078125,,-0.00646808
0.582324,0.583105,0.654659,0.661127,17.512,0.00612245,-0.000642653,0.00610078,0.00601772,-10.4967,-0.00078125,,-0.00646808
0.592871,0.593652,0.662422,0.66889,17.812,0.00618867,-0.000674729,0.00621702,0.00605998,-10.9026,-0.00078125,,-0.00646808
0.603027,0.603809,0.670834,0.677302,18.112,0.00628578,-0.000634532,0.00627443,0.00615184,-10.0947,-0.00078125,,-0.00646808
0.612598,0.613379,0.677733,0.684201,18.412,0.00641219,-0.000633881,0.00638867,0.00625634,-9.88556,-0.00078125,,-0.00646808
0.6222168,0.622998,0.681747,0.688215,18.712,0.00655952,-0.000637436,0.00655047,0.00639212,-9.71772,-0.00078125,,-0.00646808
0.63335,0.634131,0.692724,0.699192,19.012,0.00663774,-0.000650453,0.00665328,0.00649632,-9.79931,-0.00078125,,-0.00646808
0.643213,0.643994,0.701569,0.708037,19.312,0.00676288,-0.000688584,0.00675879,0.00665387,-10.1818,-0.00078125,,-0.00646808
0.652637,0.653418,0.706681,0.713149,19.612,0.0068307,-0.000694195,0.00682073,0.00673512,-10.1629,-0.00078125,,-0.00646808
0.662891,0.663672,0.713874,0.720342,19.912,0.00690863,-0.000685206,0.00692357,0.00681283,-9.91812,-0.00078125,,-0.00646808
0.6729,0.673682,0.720372,0.72684,20.212,0.00701142,-0.000691411,0.00697751,0.00686704,-9.86121,-0.00078125,,-0.00646808
0.683008,0.683789,0.726708,0.733176,20.512,0.0071171,-0.000691847,0.0070645,0.00694623,-9.72091,-0.00078125,,-0.00646808
0.692871,0.693652,0.725534,0.732003,20.812,0.00722943,-0.000663359,0.00716391,0.0070214,-9.17581,-0.00078125,,-0.00646808
0.694238,0.69502,-0.009175912,-0.002707832,20.851,0.00724242,-0.000651648,0.0071683,0.00701282,-8.99766,-0.00078125,,-0.00646808